File: v44/tables/detectorscan.UXD
; C:\DIFFDAT1\Praktikum\Teasdale Wagner\detectorscan.raw(Diffrac Plus V1.01 file) converted by XCH V1.0
_FILEVERSION=2
_SITE='Deutschland'
_USER='Administrator'
_GONIOMETER_CODE=4885
; D8 Theta/Theta; Special
_SAMPLE_CHANGER_CODE=0
_ATTACHMENTS_CODE=0
_GONIOMETER_RADIUS=350
_FIXED_DIVSLIT=0.600000
_FIXED_SAMPLESLIT=0.000000
_FIXED_DETSLIT=11.66
_MONOCHROMATOR=0
; None
_THIN_FILM='N'
_BETA_FILTER='Y'
_FIXED_ANTISLIT=8.340000
_ANALYZER_CODE=0
; None
_DATEMEASURED='15-May-2023 09:27:56'
_WL_UNIT='A'
_WL1=1.540600
_WL2=1.544390
_WL3=1.392220
_WLRATIO=0.500000
_ANODE='Cu'
; (Data for Range number 1)
_DRIVE='2THETA'
_STEPTIME=1.000000
_STEPSIZE=0.010000
_STEPMODE='S'
_START=-0.300000
_THETA=0.000000
_2THETA=-0.300000
_KHI=0.000000
_PHI=92.46
_X=0.000000
_Y=0.000000
_Z=-10
_DIVERGENCE=0.000000
_ANTISCATTER=0.000000
_DETECTOR=5
_DETECTORSLIT='unkn'
_AUX1=0.000000
_AUX2=0.000000
_AUX3=0.000000
_TIMESTARTED=3.000000
_TEMP_RATE=-1.000000
_TEMP_DELAY=-1.000000
_KV=40
_MA=35
_RANGE_WL=1.540600
_3DPLANE=0
_GONIOMETER=-0.300000
_PSDCHANNEL0=0
_2THETACOUNTS
  -0.3000      1836
  -0.2900      2122
  -0.2800      2236
  -0.2700      2418
  -0.2600      2579
  -0.2500      2644
  -0.2400      3160
  -0.2300      3646
  -0.2200      4368
  -0.2100      4898
  -0.2000      5479
  -0.1900      6142
  -0.1800      6781
  -0.1700      7939
  -0.1600      9296
  -0.1500     11164
  -0.1400     13036
  -0.1300     15916
  -0.1200     20495
  -0.1100     26592
  -0.1000     34614
  -0.0900     45569
  -0.0800     60869
  -0.0700     92128
  -0.0600    141444
  -0.0500    198646
  -0.0400    249182
  -0.0300    318370
  -0.0200    392259
  -0.0100    456486
   0.0000    506208
   0.0100    505924
   0.0200    445386
   0.0300    351661
   0.0400    252666
   0.0500    175980
   0.0600    124592
   0.0700     98877
   0.0800     69837
   0.0900     52169
   0.1000     36003
   0.1100     27611
   0.1200     22698
   0.1300     19287
   0.1400     17893
   0.1500     13613
   0.1600     11112
   0.1700      8819
   0.1800      6282
   0.1900      5170
   0.2000      4288
   0.2100      3740
   0.2200      3374
   0.2300      2970
   0.2400      2524
   0.2500      2225
   0.2600      1970
   0.2700      1773
   0.2800      1670
   0.2900      1542
   0.3000      1348