File: v44/tables/Messung2.UXD
; C:\DIFFDAT1\Praktikum\Teasdale Wagner\Messung2.raw(Diffrac Plus V1.01 file) converted by XCH V1.0
_FILEVERSION=2
_SITE='Deutschland'
_USER='Administrator'
_GONIOMETER_CODE=4885
; D8 Theta/Theta; Special
_SAMPLE_CHANGER_CODE=0
_ATTACHMENTS_CODE=0
_GONIOMETER_RADIUS=350
_FIXED_DIVSLIT=0.600000
_FIXED_SAMPLESLIT=0.000000
_FIXED_DETSLIT=11.66
_MONOCHROMATOR=0
; None
_THIN_FILM='N'
_BETA_FILTER='Y'
_FIXED_ANTISLIT=8.340000
_ANALYZER_CODE=0
; None
_DATEMEASURED='15-May-2023 12:25:06'
_WL_UNIT='A'
_WL1=1.540600
_WL2=1.544390
_WL3=1.392220
_WLRATIO=0.500000
_ANODE='Cu'
; (Data for Range number 1)
_DRIVE='THETA'
_STEPTIME=5.000660
_STEPSIZE=0.005000
_STEPMODE='C'
_START=0.000000
_THETA=0.000000
_2THETA=0.100000
_KHI=0.000000
_PHI=92.46
_X=3.061000
_Y=-0.575000
_Z=0.385000
_DIVERGENCE=0.000000
_ANTISCATTER=0.000000
_DETECTOR=5
_DETECTORSLIT='unkn'
_AUX1=0.000000
_AUX2=0.000000
_AUX3=0.000000
_TIMESTARTED=2.000000
_TEMP_RATE=-1.000000
_TEMP_DELAY=-1.000000
_KV=40
_MA=35
_RANGE_WL=1.540600
_3DPLANE=0
_GONIOMETER=0.097500
_PSDCHANNEL0=0
_2THETACOUNTS
   0.0000    306501
   0.0100    176574
   0.0200    109363
   0.0300     92707
   0.0400     72868
   0.0500     50823
   0.0600     43609
   0.0700     45187
   0.0800     50254
   0.0900     52593
   0.1000     50550
   0.1100     46879
   0.1200     36524
   0.1300     31243
   0.1400     23480
   0.1500     17141
   0.1600     14497
   0.1700     12825
   0.1800     10865
   0.1900      9119
   0.2000      7759
   0.2100      6586
   0.2200      5391
   0.2300      3723
   0.2400      2449
   0.2500      1684
   0.2600      1230
   0.2700       887
   0.2800       778
   0.2900       620
   0.3000       542
   0.3100       470
   0.3200       424
   0.3300       342
   0.3400       300
   0.3500       228
   0.3600       184
   0.3700       171
   0.3800       109
   0.3900       114
   0.4000       106
   0.4100        92
   0.4200       100
   0.4300        62
   0.4400        83
   0.4500        54
   0.4600        59
   0.4700        56
   0.4800        61
   0.4900        61
   0.5000        49
   0.5100        56
   0.5200        42
   0.5300        32
   0.5400        34
   0.5500        34
   0.5600        22
   0.5700        37
   0.5800        18
   0.5900        25
   0.6000        24
   0.6100        24
   0.6200        29
   0.6300        19
   0.6400        19
   0.6500        19
   0.6600        20
   0.6700        17
   0.6800        16
   0.6900        30
   0.7000        27
   0.7100        21
   0.7200        26
   0.7300        14
   0.7400        10
   0.7500        20
   0.7600        16
   0.7700        12
   0.7800        14
   0.7900         8
   0.8000        10
   0.8100        14
   0.8200         9
   0.8300         3
   0.8400         8
   0.8500         5
   0.8600         6
   0.8700         7
   0.8800         6
   0.8900         9
   0.9000         6
   0.9100        13
   0.9200         3
   0.9300         5
   0.9400         6
   0.9500         9
   0.9600         9
   0.9700         6
   0.9800         6
   0.9900         8
   1.0000         3
   1.0100         4
   1.0200         2
   1.0300         3
   1.0400         6
   1.0500         4
   1.0600         4
   1.0700         3
   1.0800         4
   1.0900         4
   1.1000         2
   1.1100         5
   1.1200         4
   1.1300         3
   1.1400         5
   1.1500         2
   1.1600         0
   1.1700         4
   1.1800         2
   1.1900         2
   1.2000         4
   1.2100         0
   1.2200         2
   1.2300         1
   1.2400         6
   1.2500         4
   1.2600         0
   1.2700         1
   1.2800         1
   1.2900         5
   1.3000         2
   1.3100         1
   1.3200         1
   1.3300         2
   1.3400         2
   1.3500         4
   1.3600         1
   1.3700         2
   1.3800         0
   1.3900         0
   1.4000         0
   1.4100         1
   1.4200         2
   1.4300         1
   1.4400         1
   1.4500         5
   1.4600         0
   1.4700         3
   1.4800         0
   1.4900         1
   1.5000         1
   1.5100         2
   1.5200         1
   1.5300         0
   1.5400         1
   1.5500         0
   1.5600         1
   1.5700         1
   1.5800         1
   1.5900         1
   1.6000         1
   1.6100         0
   1.6200         2
   1.6300         0
   1.6400         2
   1.6500         0
   1.6600         1
   1.6700         1
   1.6800         2
   1.6900         1
   1.7000         0
   1.7100         0
   1.7200         0
   1.7300         0
   1.7400         0
   1.7500         0
   1.7600         0
   1.7700         0
   1.7800         0
   1.7900         1
   1.8000         0
   1.8100         0
   1.8200         0
   1.8300         0
   1.8400         0
   1.8500         0
   1.8600         0
   1.8700         0
   1.8800         0
   1.8900         0
   1.9000         0
   1.9100         0
   1.9200         0
   1.9300         1
   1.9400         0
   1.9500         1
   1.9600         0
   1.9700         0
   1.9800         0
   1.9900         0
   2.0000         0
   2.0100         0
   2.0200         0
   2.0300         0
   2.0400         0
   2.0500         0
   2.0600         0
   2.0700         0
   2.0800         0
   2.0900         0
   2.1000         0
   2.1100         0
   2.1200         1
   2.1300         0
   2.1400         0
   2.1500         0
   2.1600         1
   2.1700         0
   2.1800         0
   2.1900         0
   2.2000         0
   2.2100         0
   2.2200         0
   2.2300         0
   2.2400         0
   2.2500         0
   2.2600         1
   2.2700         0
   2.2800         0
   2.2900         0
   2.3000         2
   2.3100         0
   2.3200         0
   2.3300         1
   2.3400         1
   2.3500         0
   2.3600         0
   2.3700         0
   2.3800         1
   2.3900         0
   2.4000         0
   2.4100         0
   2.4200         0
   2.4300         0
   2.4400         0
   2.4500         0
   2.4600         0
   2.4700         0
   2.4800         0
   2.4900         0
   2.5000         0