File: v44/tables/rockingscan_2_2.UXD
; C:\DIFFDAT1\Praktikum\Teasdale Wagner\rockingscan_2_2.raw(Diffrac Plus V1.01 file) converted by XCH V1.0
_FILEVERSION=2
_SITE='Deutschland'
_USER='Administrator'
_GONIOMETER_CODE=4885
; D8 Theta/Theta; Special
_SAMPLE_CHANGER_CODE=0
_ATTACHMENTS_CODE=0
_GONIOMETER_RADIUS=350
_FIXED_DIVSLIT=0.600000
_FIXED_SAMPLESLIT=0.000000
_FIXED_DETSLIT=11.66
_MONOCHROMATOR=0
; None
_THIN_FILM='N'
_BETA_FILTER='Y'
_FIXED_ANTISLIT=8.340000
_ANALYZER_CODE=0
; None
_DATEMEASURED='15-May-2023 10:25:58'
_WL_UNIT='A'
_WL1=1.540600
_WL2=1.544390
_WL3=1.392220
_WLRATIO=0.500000
_ANODE='Cu'
; (Data for Range number 1)
_DRIVE='THETA'
_STEPTIME=1.000000
_STEPSIZE=0.001000
_STEPMODE='S'
_START=-0.075000
_THETA=-0.075000
_2THETA=0.300000
_KHI=0.000000
_PHI=92.46
_X=3.061000
_Y=-0.590000
_Z=0.326000
_DIVERGENCE=0.000000
_ANTISCATTER=0.000000
_DETECTOR=5
_DETECTORSLIT='unkn'
_AUX1=0.000000
_AUX2=0.000000
_AUX3=0.000000
_TIMESTARTED=3.000000
_TEMP_RATE=-1.000000
_TEMP_DELAY=-1.000000
_KV=40
_MA=35
_RANGE_WL=1.540600
_3DPLANE=0
_GONIOMETER=0.300000
_PSDCHANNEL0=0
_2THETACOUNTS
  -0.0750      2485
  -0.0740      2502
  -0.0730      2534
  -0.0720      2641
  -0.0710      2607
  -0.0700      2760
  -0.0690      2801
  -0.0680      3029
  -0.0670      2955
  -0.0660      3208
  -0.0650      3158
  -0.0640      3369
  -0.0630      3483
  -0.0620      3568
  -0.0610      3921
  -0.0600      4212
  -0.0590      4379
  -0.0580      4476
  -0.0570      4768
  -0.0560      5024
  -0.0550      5540
  -0.0540      5898
  -0.0530      6294
  -0.0520      6721
  -0.0510      7286
  -0.0500      7867
  -0.0490      8216
  -0.0480      8744
  -0.0470      9157
  -0.0460      9748
  -0.0450     10315
  -0.0440     10995
  -0.0430     11211
  -0.0420     11747
  -0.0410     12201
  -0.0400     12629
  -0.0390     13088
  -0.0380     13588
  -0.0370     13799
  -0.0360     14148
  -0.0350     14814
  -0.0340     15142
  -0.0330     15820
  -0.0320     16276
  -0.0310     17001
  -0.0300     17586
  -0.0290     17862
  -0.0280     18540
  -0.0270     19446
  -0.0260     19999
  -0.0250     20664
  -0.0240     21477
  -0.0230     22877
  -0.0220     24936
  -0.0210     27781
  -0.0200     31613
  -0.0190     36842
  -0.0180     42566
  -0.0170     48861
  -0.0160     56127
  -0.0150     63938
  -0.0140     72755
  -0.0130     83407
  -0.0120     95102
  -0.0110    106903
  -0.0100    117865
  -0.0090    130635
  -0.0080    144188
  -0.0070    158076
  -0.0060    171760
  -0.0050    183507
  -0.0040    195699
  -0.0030    196844
  -0.0020    197832
  -0.0010    198725
   0.0000    202540
   0.0010    205771
   0.0020    202509
   0.0030    197208
   0.0040    194119
   0.0050    187285
   0.0060    175412
   0.0070    165600
   0.0080    157739
   0.0090    140758
   0.0100    141069
   0.0110    128812
   0.0120    114162
   0.0130    101953
   0.0140     89259
   0.0150     77847
   0.0160     66794
   0.0170     55026
   0.0180     46090
   0.0190     38389
   0.0200     32284
   0.0210     27786
   0.0220     24504
   0.0230     22520
   0.0240     21447
   0.0250     20241
   0.0260     19178
   0.0270     18289
   0.0280     17433
   0.0290     16858
   0.0300     16359
   0.0310     15807
   0.0320     15082
   0.0330     14689
   0.0340     14561
   0.0350     13973
   0.0360     13465
   0.0370     12764
   0.0380     12471
   0.0390     11872
   0.0400     11396
   0.0410     10848
   0.0420     10368
   0.0430     10083
   0.0440      9473
   0.0450      8798
   0.0460      8250
   0.0470      7914
   0.0480      7331
   0.0490      7234
   0.0500      6757
   0.0510      6416
   0.0520      6091
   0.0530      5791
   0.0540      5489
   0.0550      5391
   0.0560      5147
   0.0570      5118
   0.0580      4640
   0.0590      4694
   0.0600      4600
   0.0610      4393
   0.0620      4187
   0.0630      4094
   0.0640      3811
   0.0650      3750
   0.0660      3653
   0.0670      3451
   0.0680      3376
   0.0690      3330
   0.0700      3220
   0.0710      3106
   0.0720      2954
   0.0730      2958
   0.0740      2839
   0.0750      2816